# f [Hz], A [dBV]
# 
0.000000,-59.273030
250.626566,-69.920780
501.253133,-73.277980
751.879699,-73.583710
1002.506266,-74.330410
1253.132832,-74.518550
1503.759398,-74.606740
1754.385965,-74.912480
2005.012531,-74.830160
2255.639098,-74.971270
2506.265664,-75.100620
2756.892231,-75.212330
3007.518797,-75.071220
3258.145363,-75.000660
3508.771930,-75.200570
3759.398496,-75.188810
4010.025063,-75.094730
4260.651629,-75.206450
4511.278195,-75.006550
4761.904762,-75.188810
5012.531328,-75.182930
5263.157895,-75.177050
5513.784461,-75.147650
5764.411028,-75.006550
6015.037594,-75.006550
6265.664160,-75.229970
6516.290727,-74.836040
6766.917293,-74.994790
7017.543860,-75.118260
7268.170426,-75.147650
7518.796992,-75.053580
7769.423559,-75.112370
8020.050125,-74.794880
8270.676692,-75.118260
8521.303258,-75.088860
8771.929825,-74.894840
9022.556391,-75.112370
9273.182957,-75.088860
9523.809524,-74.888950
9774.436090,-75.035940
10025.062657,-74.959510
10275.689223,-75.012430
10526.315789,-74.983020
10776.942356,-74.930110
11027.568922,-74.959510
11278.195489,-74.994790
11528.822055,-74.959510
11779.448622,-75.147650
12030.075188,-74.753720
12280.701754,-75.024190
12531.328321,-74.794880
12781.954887,-75.088860
13032.581454,-74.736090
13283.208020,-74.912480
13533.834586,-74.871320
13784.461153,-74.853680
14035.087719,-74.859560
14285.714286,-74.824280
14536.340852,-74.994790
14786.967419,-74.736090
15037.593985,-74.771360
15288.220551,-74.871320
15538.847118,-74.930110
15789.473684,-74.953630
16040.100251,-74.935990
16290.726817,-74.689050
16541.353383,-74.653780
16791.979950,-74.606740
17042.606516,-74.824280
17293.233083,-74.789000
17543.859649,-74.818400
17794.486216,-74.824280
18045.112782,-74.935990
18295.739348,-74.665530
18546.365915,-74.894840
18796.992481,-74.642010
19047.619048,-74.671420
19298.245614,-74.789000
19548.872180,-74.759610
19799.498747,-74.765490
20050.125313,-74.618500
20300.751880,-74.589100
20551.378446,-74.700810
20802.005013,-74.665530
21052.631579,-74.777240
21303.258145,-74.659650
21553.884712,-74.747850
21804.511278,-74.553830
22055.137845,-74.477390
22305.764411,-74.465630
22556.390977,-74.483270
22807.017544,-74.565580
23057.644110,-74.447990
23308.270677,-74.577340
23558.897243,-74.489150
23809.523810,-74.418590
24060.150376,-74.506790
24310.776942,-74.436230
24561.403509,-74.589100
24812.030075,-74.577340
25062.656642,-74.453870
25313.283208,-74.724330
25563.909774,-74.524430
25814.536341,-74.400960
26065.162907,-74.265730
26315.789474,-74.512660
26566.416040,-74.642010
26817.042607,-74.412720
27067.669173,-74.389200
27318.295739,-74.506790
27568.922306,-74.277490
27819.548872,-74.447990
28070.175439,-74.306880
28320.802005,-74.459750
28571.428571,-74.471510
28822.055138,-74.542070
29072.681704,-74.295130
29323.308271,-74.371560
29573.934837,-74.353920
29824.561404,-74.418590
30075.187970,-74.395080
30325.814536,-74.383320
30576.441103,-74.295130
30827.067669,-74.230450
31077.694236,-74.459750
31328.320802,-74.400960
31578.947368,-74.530300
31829.573935,-74.301000
32080.200501,-74.242210
32330.827068,-74.112860
32581.453634,-74.277490
32832.080201,-74.077580
33082.706767,-74.271610
33333.333333,-74.177540
33583.959900,-74.177540
33834.586466,-74.195180
34085.213033,-74.383320
34335.839599,-74.277490
34586.466165,-74.048190
34837.092732,-74.183420
35087.719298,-74.177540
35338.345865,-74.095220
35588.972431,-74.112860
35839.598997,-74.336280
36090.225564,-73.954120
36340.852130,-74.154020
36591.478697,-74.195180
36842.105263,-74.130500
37092.731830,-74.224570
37343.358396,-74.154020
37593.984962,-74.177540
37844.611529,-73.983510
38095.238095,-74.148140
38345.864662,-74.071710
38596.491228,-74.136380
38847.117794,-74.095220
39097.744361,-74.048190
39348.370927,-74.106980
39598.997494,-74.030550
39849.624060,-74.077580
40100.250627,-74.036430
40350.877193,-73.960000
40601.503759,-74.106980
40852.130326,-73.912960
41102.756892,-73.924720
41353.383459,-74.071710
41604.010025,-74.148140
41854.636591,-73.901200
42105.263158,-74.059940
42355.889724,-73.954120
42606.516291,-74.083470
42857.142857,-73.948230
43107.769424,-73.995270
43358.395990,-73.936480
43609.022556,-73.842410
43859.649123,-73.813010
44110.275689,-73.765980
44360.902256,-73.877690
44611.528822,-73.860050
44862.155388,-73.871800
45112.781955,-73.836520
45363.408521,-73.883560
45614.035088,-74.007030
45864.661654,-73.930600
46115.288221,-73.871800
46365.914787,-73.830650
46616.541353,-73.730700
46867.167920,-73.836520
47117.794486,-73.783610
47368.421053,-73.642500
47619.047619,-73.771850
47869.674185,-73.912960
48120.300752,-73.736570
48370.927318,-73.683660
48621.553885,-73.848280
48872.180451,-73.683660
49122.807018,-73.842410
49373.433584,-73.789490
49624.060150,-73.889440
49874.686717,-73.765980
50125.313283,-73.530790
50375.939850,-73.842410
50626.566416,-73.730700
50877.192982,-73.754210
51127.819549,-73.813010
51378.446115,-73.783610
51629.072682,-73.754210
51879.699248,-73.489640
52130.325815,-73.912960
52380.952381,-73.742450
52631.578947,-73.613110
52882.205514,-73.836520
53132.832080,-73.748340
53383.458647,-73.513150
53634.085213,-73.918840
53884.711779,-73.836520
54135.338346,-73.801250
54385.964912,-73.742450
54636.591479,-73.648380
54887.218045,-73.689540
55137.844612,-73.760090
55388.471178,-73.707180
55639.097744,-73.566070
55889.724311,-73.677780
56140.350877,-73.795370
56390.977444,-73.818890
56641.604010,-73.818890
56892.230576,-73.830650
57142.857143,-73.595470
57393.483709,-73.695420
57644.110276,-73.713060
57894.736842,-73.813010
58145.363409,-73.618990
58395.989975,-73.730700
58646.616541,-73.877690
58897.243108,-73.795370
59147.869674,-73.754210
59398.496241,-73.636620
59649.122807,-73.748340
59899.749373,-73.707180
60150.375940,-73.818890
60401.002506,-73.701300
60651.629073,-73.801250
60902.255639,-73.713060
61152.882206,-73.771850
61403.508772,-73.671900
61654.135338,-73.877690
61904.761905,-73.742450
62155.388471,-73.742450
62406.015038,-73.683660
62656.641604,-73.777730
62907.268170,-73.736570
63157.894737,-73.589580
63408.521303,-73.483760
63659.147870,-73.618990
63909.774436,-73.648380
64160.401003,-73.613110
64411.027569,-73.642500
64661.654135,-73.607220
64912.280702,-73.542550
65162.907268,-73.677780
65413.533835,-73.654260
65664.160401,-73.666020
65914.786967,-73.666020
66165.413534,-73.677780
66416.040100,-73.754210
66666.666667,-73.630740
66917.293233,-73.536670
67167.919799,-73.630740
67418.546366,-73.742450
67669.172932,-73.707180
67919.799499,-73.560190
68170.426065,-73.630740
68421.052632,-73.701300
68671.679198,-73.813010
68922.305764,-73.730700
69172.932331,-73.842410
69423.558897,-73.718930
69674.185464,-73.695420
69924.812030,-73.571950
70175.438596,-73.589580
70426.065163,-73.624860
70676.691729,-73.683660
70927.318296,-73.519040
71177.944862,-73.607220
71428.571429,-73.577830
71679.197995,-73.666020
71929.824561,-73.689540
72180.451128,-73.560190
72431.077694,-73.701300
72681.704261,-73.542550
72932.330827,-73.818890
73182.957393,-73.807130
73433.583960,-73.677780
73684.210526,-73.724820
73934.837093,-73.718930
74185.463659,-73.489640
74436.090226,-73.430840
74686.716792,-73.718930
74937.343358,-73.548430
75187.969925,-73.783610
75438.596491,-73.671900
75689.223058,-73.830650
75939.849624,-73.807130
76190.476190,-73.777730
76441.102757,-73.777730
76691.729323,-73.542550
76942.355890,-73.648380
77192.982456,-73.660140
77443.609023,-73.718930
77694.235589,-73.601350
77944.862155,-73.630740
78195.488722,-73.613110
78446.115288,-73.601350
78696.741855,-73.630740
78947.368421,-73.636620
79197.994987,-73.448480
79448.621554,-73.507270
79699.248120,-73.642500
79949.874687,-73.707180
80200.501253,-73.607220
80451.127820,-73.542550
80701.754386,-73.560190
80952.380952,-73.666020
81203.007519,-73.783610
81453.634085,-73.683660
81704.260652,-73.683660
81954.887218,-73.666020
82205.513784,-73.848280
82456.140351,-73.713060
82706.766917,-73.883560
82957.393484,-73.483760
83208.020050,-73.748340
83458.646617,-73.912960
83709.273183,-73.689540
83959.899749,-73.683660
84210.526316,-73.807130
84461.152882,-73.654260
84711.779449,-73.830650
84962.406015,-73.748340
85213.032581,-73.889440
85463.659148,-73.760090
85714.285714,-73.742450
85964.912281,-73.677780
86215.538847,-73.789490
86466.165414,-73.695420
86716.791980,-73.760090
86967.418546,-73.695420
87218.045113,-73.795370
87468.671679,-73.842410
87719.298246,-73.589580
87969.924812,-73.789490
88220.551378,-73.666020
88471.177945,-73.795370
88721.804511,-73.760090
88972.431078,-73.818890
89223.057644,-73.724820
89473.684211,-73.824770
89724.310777,-73.730700
89974.937343,-73.795370
90225.563910,-74.012910
90476.190476,-73.783610
90726.817043,-73.783610
90977.443609,-73.765980
91228.070175,-73.642500
91478.696742,-73.695420
91729.323308,-73.836520
91979.949875,-73.795370
92230.576441,-73.765980
92481.203008,-73.877690
92731.829574,-73.789490
92982.456140,-74.030550
93233.082707,-73.836520
93483.709273,-73.742450
93734.335840,-73.948230
93984.962406,-73.860050
94235.588972,-73.777730
94486.215539,-73.954120
94736.842105,-74.012910
94987.468672,-73.912960
95238.095238,-73.730700
95488.721805,-73.654260
95739.348371,-73.965870
95989.974937,-74.065830
96240.601504,-73.095710
96491.228070,-74.018790
96741.854637,-73.901200
96992.481203,-73.818890
97243.107769,-73.907080
97493.734336,-74.001150
97744.360902,-74.054070
97994.987469,-73.895320
98245.614035,-73.960000
98496.240602,-74.018790
98746.867168,-73.842410
98997.493734,-73.918840
99248.120301,-73.871800
99498.746867,-73.983510
99749.373434,-73.977630
100000.000000,-74.018790
