# f [Hz], A [dBV]
# 
0.000000,-54.659610
250.626566,-66.636140
501.253133,-67.935500
751.879699,-67.523940
1002.506266,-67.894350
1253.132832,-68.364710
1503.759398,-68.088370
1754.385965,-68.658680
2005.012531,-68.852710
2255.639098,-68.711600
2506.265664,-68.935020
2756.892231,-69.011450
3007.518797,-69.146680
3258.145363,-69.076130
3508.771930,-69.070240
3759.398496,-69.176080
4010.025063,-69.411250
4260.651629,-69.193720
4511.278195,-69.223110
4761.904762,-69.140800
5012.531328,-69.246630
5263.157895,-69.199590
5513.784461,-69.223110
5764.411028,-69.246630
6015.037594,-69.364220
6265.664160,-69.352460
6516.290727,-69.240750
6766.917293,-69.211360
7017.543860,-69.370100
7268.170426,-69.152560
7518.796992,-69.346580
7769.423559,-69.129040
8020.050125,-69.193720
8270.676692,-69.234870
8521.303258,-69.270150
8771.929825,-69.211360
9022.556391,-69.181950
9273.182957,-69.281910
9523.809524,-69.205470
9774.436090,-69.252510
10025.062657,-69.034970
10275.689223,-69.176080
10526.315789,-69.287790
10776.942356,-69.087880
11027.568922,-69.082010
11278.195489,-69.058490
11528.822055,-69.170200
11779.448622,-69.146680
12030.075188,-69.287790
12280.701754,-69.258390
12531.328321,-69.193720
12781.954887,-69.129040
13032.581454,-69.229000
13283.208020,-69.123160
13533.834586,-69.046730
13784.461153,-69.258390
14035.087719,-69.199590
14285.714286,-69.246630
14536.340852,-69.176080
14786.967419,-69.176080
15037.593985,-69.193720
15288.220551,-69.064370
15538.847118,-69.093770
15789.473684,-69.199590
16040.100251,-69.193720
16290.726817,-69.217230
16541.353383,-69.411250
16791.979950,-69.146680
17042.606516,-69.123160
17293.233083,-69.205470
17543.859649,-69.158440
17794.486216,-68.976170
18045.112782,-69.234870
18295.739348,-69.158440
18546.365915,-69.234870
18796.992481,-69.134920
19047.619048,-69.017330
19298.245614,-69.176080
19548.872180,-69.146680
19799.498747,-69.111400
20050.125313,-69.093770
20300.751880,-69.246630
20551.378446,-69.123160
20802.005013,-69.170200
21052.631579,-69.234870
21303.258145,-69.123160
21553.884712,-69.105520
21804.511278,-68.999690
22055.137845,-69.029090
22305.764411,-69.093770
22556.390977,-69.040850
22807.017544,-69.087880
23057.644110,-69.158440
23308.270677,-68.987930
23558.897243,-69.011450
23809.523810,-69.129040
24060.150376,-68.940900
24310.776942,-69.123160
24561.403509,-68.976170
24812.030075,-68.923260
25062.656642,-69.093770
25313.283208,-68.993810
25563.909774,-68.976170
25814.536341,-69.029090
26065.162907,-69.052600
26315.789474,-68.935020
26566.416040,-69.246630
26817.042607,-69.076130
27067.669173,-68.864460
27318.295739,-68.805670
27568.922306,-69.017330
27819.548872,-69.029090
28070.175439,-69.129040
28320.802005,-69.064370
28571.428571,-68.917380
28822.055138,-69.146680
29072.681704,-69.111400
29323.308271,-69.076130
29573.934837,-69.099650
29824.561404,-69.211360
30075.187970,-69.076130
30325.814536,-69.046730
30576.441103,-69.040850
30827.067669,-69.123160
31077.694236,-69.023210
31328.320802,-69.046730
31578.947368,-68.999690
31829.573935,-69.034970
32080.200501,-69.034970
32330.827068,-68.987930
32581.453634,-69.193720
32832.080201,-69.087880
33082.706767,-69.158440
33333.333333,-68.940900
33583.959900,-69.046730
33834.586466,-68.958530
34085.213033,-69.111400
34335.839599,-68.982060
34586.466165,-68.976170
34837.092732,-68.982060
35087.719298,-69.111400
35338.345865,-69.123160
35588.972431,-68.940900
35839.598997,-69.052600
36090.225564,-69.170200
36340.852130,-69.093770
36591.478697,-69.099650
36842.105263,-69.134920
37092.731830,-69.140800
37343.358396,-69.058490
37593.984962,-69.017330
37844.611529,-69.176080
38095.238095,-69.034970
38345.864662,-68.917380
38596.491228,-69.029090
38847.117794,-69.111400
39097.744361,-68.887990
39348.370927,-68.958530
39598.997494,-68.911500
39849.624060,-68.711600
40100.250627,-68.835070
40350.877193,-68.594010
40601.503759,-68.905620
40852.130326,-68.652800
41102.756892,-68.423500
41353.383459,-68.300030
41604.010025,-68.047220
41854.636591,-67.900230
42105.263158,-67.553340
42355.889724,-67.418110
42606.516291,-67.594500
42857.142857,-67.318160
43107.769424,-66.918350
43358.395990,-66.783130
43609.022556,-66.653780
43859.649123,-66.594980
44110.275689,-66.542070
44360.902256,-66.789000
44611.528822,-66.606740
44862.155388,-66.665530
45112.781955,-67.035940
45363.408521,-66.877200
45614.035088,-66.277490
45864.661654,-66.518550
46115.288221,-66.565580
46365.914787,-66.871320
46616.541353,-67.412230
46867.167920,-66.565580
47117.794486,-66.165780
47368.421053,-66.824280
47619.047619,-66.794880
47869.674185,-67.030060
48120.300752,-67.141780
48370.927318,-66.406840
48621.553885,-66.495030
48872.180451,-67.006550
49122.807018,-67.135890
49373.433584,-67.082980
49624.060150,-66.906590
49874.686717,-66.718450
50125.313283,-66.947750
50375.939850,-67.453380
50626.566416,-67.465150
50877.192982,-67.159410
51127.819549,-66.830160
51378.446115,-66.824280
51629.072682,-67.118260
51879.699248,-67.388710
52130.325815,-67.147650
52380.952381,-67.371070
52631.578947,-67.041820
52882.205514,-67.147650
53132.832080,-67.488660
53383.458647,-67.776760
53634.085213,-67.576860
53884.711779,-67.859070
54135.338346,-67.970780
54385.964912,-68.053090
54636.591479,-68.100130
54887.218045,-68.300030
55137.844612,-68.558730
55388.471178,-68.646930
55639.097744,-68.735120
55889.724311,-68.711600
56140.350877,-68.811550
56390.977444,-68.899740
56641.604010,-69.123160
56892.230576,-69.146680
57142.857143,-69.076130
57393.483709,-69.211360
57644.110276,-69.276030
57894.736842,-69.187840
58145.363409,-69.234870
58395.989975,-69.252510
58646.616541,-69.211360
58897.243108,-69.152560
59147.869674,-69.152560
59398.496241,-69.240750
59649.122807,-69.170200
59899.749373,-69.246630
60150.375940,-69.129040
60401.002506,-69.258390
60651.629073,-69.205470
60902.255639,-69.205470
61152.882206,-69.287790
61403.508772,-69.205470
61654.135338,-69.181950
61904.761905,-69.070240
62155.388471,-69.170200
62406.015038,-69.005570
62656.641604,-68.582250
62907.268170,-68.129520
63157.894737,-68.094250
63408.521303,-68.576370
63659.147870,-68.311790
63909.774436,-68.106010
64160.401003,-67.447510
64411.027569,-67.282880
64661.654135,-67.494540
64912.280702,-65.554310
65162.907268,-66.824280
65413.533835,-67.529820
65664.160401,-67.582730
65914.786967,-67.294640
66165.413534,-67.453380
66416.040100,-67.859070
66666.666667,-67.953140
66917.293233,-68.082490
67167.919799,-67.812030
67418.546366,-67.271130
67669.172932,-67.271130
67919.799499,-67.829670
68170.426065,-68.170680
68421.052632,-67.976660
68671.679198,-68.094250
68922.305764,-67.841430
69172.932331,-67.717960
69423.558897,-67.941380
69674.185464,-67.712080
69924.812030,-67.776760
70175.438596,-68.064850
70426.065163,-67.729720
70676.691729,-67.547450
70927.318296,-67.676800
71177.944862,-67.618010
71428.571429,-67.800280
71679.197995,-68.129520
71929.824561,-68.276510
72180.451128,-68.117770
72431.077694,-68.305920
72681.704261,-68.058980
72932.330827,-68.235360
73182.957393,-68.247120
73433.583960,-68.141290
73684.210526,-68.258880
73934.837093,-68.064850
74185.463659,-67.847310
74436.090226,-68.029580
74686.716792,-68.164800
74937.343358,-68.053090
75187.969925,-68.194200
75438.596491,-68.200080
75689.223058,-68.276510
75939.849624,-68.705720
76190.476190,-68.929140
76441.102757,-68.887990
76691.729323,-68.594010
76942.355890,-68.423500
77192.982456,-67.935500
77443.609023,-68.405860
77694.235589,-68.511700
77944.862155,-68.635160
78195.488722,-68.399990
78446.115288,-67.800280
78696.741855,-68.035450
78947.368421,-68.452900
79197.994987,-68.840950
79448.621554,-69.105520
79699.248120,-68.970300
79949.874687,-69.023210
80200.501253,-69.070240
80451.127820,-68.946780
80701.754386,-69.187840
80952.380952,-69.276030
81203.007519,-69.111400
81453.634085,-69.046730
81704.260652,-69.193720
81954.887218,-69.217230
82205.513784,-69.399500
82456.140351,-69.505330
82706.766917,-69.340710
82957.393484,-69.364220
83208.020050,-69.505330
83458.646617,-69.775790
83709.273183,-69.464170
83959.899749,-69.440650
84210.526316,-69.346580
84461.152882,-69.158440
84711.779449,-69.399500
84962.406015,-69.134920
85213.032581,-69.017330
85463.659148,-69.029090
85714.285714,-68.729230
85964.912281,-68.782150
86215.538847,-68.929140
86466.165414,-68.858580
86716.791980,-69.099650
86967.418546,-69.181950
87218.045113,-68.829190
87468.671679,-69.134920
87719.298246,-69.193720
87969.924812,-69.287790
88220.551378,-69.352460
88471.177945,-69.087880
88721.804511,-69.158440
88972.431078,-69.217230
89223.057644,-68.964420
89473.684211,-68.776280
89724.310777,-68.682200
89974.937343,-68.876220
90225.563910,-69.129040
90476.190476,-69.005570
90726.817043,-68.840950
90977.443609,-68.817430
91228.070175,-69.193720
91478.696742,-69.375980
91729.323308,-69.534730
91979.949875,-69.593520
92230.576441,-69.646440
92481.203008,-69.393620
92731.829574,-69.434780
92982.456140,-69.405380
93233.082707,-69.346580
93483.709273,-69.193720
93734.335840,-68.735120
93984.962406,-68.752750
94235.588972,-68.788030
94486.215539,-69.181950
94736.842105,-69.176080
94987.468672,-69.217230
95238.095238,-68.940900
95488.721805,-69.323070
95739.348371,-69.593520
95989.974937,-69.846340
96240.601504,-69.605280
96491.228070,-70.116800
96741.854637,-69.887500
96992.481203,-69.828700
97243.107769,-69.793430
97493.734336,-69.822820
97744.360902,-69.858100
97994.987469,-69.828700
98245.614035,-69.393620
98496.240602,-69.281910
98746.867168,-69.346580
98997.493734,-69.334820
99248.120301,-69.505330
99498.746867,-69.428890
99749.373434,-69.452420
100000.000000,-69.734630
