# f [Hz], A [dBV]
# 
0.000000,-66.103940
250.626566,-66.621330
501.253133,-75.358250
751.879699,-78.586100
1002.506266,-75.581670
1253.132832,-77.463110
1503.759398,-85.194650
1754.385965,-87.458250
2005.012531,-87.023170
2255.639098,-90.274530
2506.265664,-91.691480
2756.892231,-92.579280
3007.518797,-94.025640
3258.145363,-94.913440
3508.771930,-95.536670
3759.398496,-96.183420
4010.025063,-96.741970
4260.651629,-97.382840
4511.278195,-97.717960
4761.904762,-98.405860
5012.531328,-98.905620
5263.157895,-99.287790
5513.784461,-99.805180
5764.411028,-100.175600
6015.037594,-100.093300
6265.664160,-100.910500
6516.290727,-101.257400
6766.917293,-101.539600
7017.543860,-101.792400
7268.170426,-102.186400
7518.796992,-102.503900
7769.423559,-102.703800
8020.050125,-102.756700
8270.676692,-103.291700
8521.303258,-103.509300
8771.929825,-103.720900
9022.556391,-103.797400
9273.182957,-104.138400
9523.809524,-104.444100
9774.436090,-104.685200
10025.062657,-104.902700
10275.689223,-105.061500
10526.315789,-105.296600
10776.942356,-105.508300
11027.568922,-105.690600
11278.195489,-105.866900
11528.822055,-106.037400
11779.448622,-106.013900
12030.075188,-105.255500
12280.701754,-106.331400
12531.328321,-106.731200
12781.954887,-106.854700
13032.581454,-107.001700
13283.208020,-107.078100
13533.834586,-105.573000
13784.461153,-107.319200
14035.087719,-107.536700
14285.714286,-107.648400
14536.340852,-107.801300
14786.967419,-107.907100
15037.593985,-107.278000
15288.220551,-107.519100
15538.847118,-104.549900
15789.473684,-102.333400
16040.100251,-107.060500
16290.726817,-108.007100
16541.353383,-108.377500
16791.979950,-108.859600
17042.606516,-109.053600
17293.233083,-109.200600
17543.859649,-109.247600
17794.486216,-109.200600
18045.112782,-106.601900
18295.739348,-109.424000
18546.365915,-109.618100
18796.992481,-109.888500
19047.619048,-109.994300
19298.245614,-110.076700
19548.872180,-110.088400
19799.498747,-109.200600
20050.125313,-107.671900
20300.751880,-109.365200
20551.378446,-110.329500
20802.005013,-109.994300
21052.631579,-109.882600
21303.258145,-110.200100
21553.884712,-110.699900
21804.511278,-110.758700
22055.137845,-110.876300
22305.764411,-110.864500
22556.390977,-110.541100
22807.017544,-108.424500
23057.644110,-110.400000
23308.270677,-110.429400
23558.897243,-110.476500
23809.523810,-109.823800
24060.150376,-108.753800
24310.776942,-109.929700
24561.403509,-110.135500
24812.030075,-110.641100
25062.656642,-110.417700
25313.283208,-110.423500
25563.909774,-110.117800
25814.536341,-109.712100
26065.162907,-109.265300
26315.789474,-108.871400
26566.416040,-108.277500
26817.042607,-107.848300
27067.669173,-107.542600
27318.295739,-106.625400
27568.922306,-104.632200
27819.548872,-103.609200
28070.175439,-102.409800
28320.802005,-102.098200
28571.428571,-102.021800
28822.055138,-102.927200
29072.681704,-103.732700
29323.308271,-104.244200
29573.934837,-104.591100
29824.561404,-104.808600
30075.187970,-103.779700
30325.814536,-105.279000
30576.441103,-106.325500
30827.067669,-106.966400
31077.694236,-106.837100
31328.320802,-103.468100
31578.947368,-106.272600
31829.573935,-106.213800
32080.200501,-105.155500
32330.827068,-106.055100
32581.453634,-107.613100
32832.080201,-107.977700
33082.706767,-108.912500
33333.333333,-109.747400
33583.959900,-110.799800
33834.586466,-111.152600
34085.213033,-111.428900
34335.839599,-111.176100
34586.466165,-111.722900
34837.092732,-112.116800
35087.719298,-109.359400
35338.345865,-112.310900
35588.972431,-111.922800
35839.598997,-111.570000
36090.225564,-111.346600
36340.852130,-112.716500
36591.478697,-113.098700
36842.105263,-113.745500
37092.731830,-113.986500
37343.358396,-114.204100
37593.984962,-114.333400
37844.611529,-114.392200
38095.238095,-114.474500
38345.864662,-114.521600
38596.491228,-114.639100
38847.117794,-114.662700
39097.744361,-114.680300
39348.370927,-114.521600
39598.997494,-114.209900
39849.624060,-113.963000
40100.250627,-113.428000
40350.877193,-113.598500
40601.503759,-114.245200
40852.130326,-112.898800
41102.756892,-109.488700
41353.383459,-112.910600
41604.010025,-112.340300
41854.636591,-109.059500
42105.263158,-106.913500
42355.889724,-110.970300
42606.516291,-111.246700
42857.142857,-112.851800
43107.769424,-113.251600
43358.395990,-113.392700
43609.022556,-113.345700
43859.649123,-113.092800
44110.275689,-112.593100
44360.902256,-112.916500
44611.528822,-112.804700
44862.155388,-113.416200
45112.781955,-113.945400
45363.408521,-113.898300
45614.035088,-113.545600
45864.661654,-113.757200
46115.288221,-113.651400
46365.914787,-113.880700
46616.541353,-113.886600
46867.167920,-112.440200
47117.794486,-106.437300
47368.421053,-113.328000
47619.047619,-113.727800
47869.674185,-113.739600
48120.300752,-113.251600
48370.927318,-113.251600
48621.553885,-113.874800
48872.180451,-114.427500
49122.807018,-113.410300
49373.433584,-114.498000
49624.060150,-114.392200
49874.686717,-114.239300
50125.313283,-113.910100
50375.939850,-114.680300
50626.566416,-114.844900
50877.192982,-114.574500
51127.819549,-114.292300
51378.446115,-114.274600
51629.072682,-114.315800
51879.699248,-114.333400
52130.325815,-114.333400
52380.952381,-114.151100
52631.578947,-114.221700
52882.205514,-114.539200
53132.832080,-114.833200
53383.458647,-114.762600
53634.085213,-114.221700
53884.711779,-115.133000
54135.338346,-108.724400
54385.964912,-115.280000
54636.591479,-114.956600
54887.218045,-114.051200
55137.844612,-115.309400
55388.471178,-115.403500
55639.097744,-115.309400
55889.724311,-114.862600
56140.350877,-115.444600
56390.977444,-114.674400
56641.604010,-115.150700
56892.230576,-115.556300
57142.857143,-115.721000
57393.483709,-115.650400
57644.110276,-116.097300
57894.736842,-116.209000
58145.363409,-116.226600
58395.989975,-116.179600
58646.616541,-116.144300
58897.243108,-116.050200
59147.869674,-115.926800
59398.496241,-115.532800
59649.122807,-115.591600
59899.749373,-115.197700
60150.375940,-115.268200
60401.002506,-115.409400
60651.629073,-115.544600
60902.255639,-115.709200
61152.882206,-115.979700
61403.508772,-115.832700
61654.135338,-115.668100
61904.761905,-114.204100
62155.388471,-115.074200
62406.015038,-114.609700
62656.641604,-109.112400
62907.268170,-111.687600
63157.894737,-114.074700
63408.521303,-114.380400
63659.147870,-113.045800
63909.774436,-111.775800
64160.401003,-112.840000
64411.027569,-111.534800
64661.654135,-108.618500
64912.280702,-97.776760
65162.907268,-101.116300
65413.533835,-108.630300
65664.160401,-111.770000
65914.786967,-113.157500
66165.413534,-108.330400
66416.040100,-114.015900
66666.666667,-114.697900
66917.293233,-114.656800
67167.919799,-114.509800
67418.546366,-114.392200
67669.172932,-114.480400
67919.799499,-114.627400
68170.426065,-114.944900
68421.052632,-114.750900
68671.679198,-114.721500
68922.305764,-114.880200
69172.932331,-114.927200
69423.558897,-115.074200
69674.185464,-114.986000
69924.812030,-114.850800
70175.438596,-114.233500
70426.065163,-106.784100
70676.691729,-111.605300
70927.318296,-114.386300
71177.944862,-114.580300
71428.571429,-114.950800
71679.197995,-114.933100
71929.824561,-115.091900
72180.451128,-115.274100
72431.077694,-115.080100
72681.704261,-115.091900
72932.330827,-115.262400
73182.957393,-115.362300
73433.583960,-115.362300
73684.210526,-115.280000
73934.837093,-115.050700
74185.463659,-114.556800
74436.090226,-112.152100
74686.716792,-115.062500
74937.343358,-115.127100
75187.969925,-114.815500
75438.596491,-114.821400
75689.223058,-115.185900
75939.849624,-115.303500
76190.476190,-114.880200
76441.102757,-115.221200
76691.729323,-115.285900
76942.355890,-114.980200
77192.982456,-115.121300
77443.609023,-115.180100
77694.235589,-114.745000
77944.862155,-113.433800
78195.488722,-108.542100
78446.115288,-108.301000
78696.741855,-114.833200
78947.368421,-114.933100
79197.994987,-115.091900
79448.621554,-115.227100
79699.248120,-115.185900
79949.874687,-115.003700
80200.501253,-114.315800
80451.127820,-114.145300
80701.754386,-115.103600
80952.380952,-115.256500
81203.007519,-115.315300
81453.634085,-115.227100
81704.260652,-115.244700
81954.887218,-115.256500
82205.513784,-115.356400
82456.140351,-115.244700
82706.766917,-115.162400
82957.393484,-114.427500
83208.020050,-115.127100
83458.646617,-115.068300
83709.273183,-114.939000
83959.899749,-115.068300
84210.526316,-114.997800
84461.152882,-114.833200
84711.779449,-114.774400
84962.406015,-114.733200
85213.032581,-114.545100
85463.659148,-113.257500
85714.285714,-114.374600
85964.912281,-114.392200
86215.538847,-114.298100
86466.165414,-114.245200
86716.791980,-114.280500
86967.418546,-114.162900
87218.045113,-114.192300
87468.671679,-114.268700
87719.298246,-114.251100
87969.924812,-114.292300
88220.551378,-114.192300
88471.177945,-114.209900
88721.804511,-114.157000
88972.431078,-114.145300
89223.057644,-113.863000
89473.684211,-113.780700
89724.310777,-113.716100
89974.937343,-112.587200
90225.563910,-108.154100
90476.190476,-113.769000
90726.817043,-113.610200
90977.443609,-113.463200
91228.070175,-113.645500
91478.696742,-113.733700
91729.323308,-113.739600
91979.949875,-113.663100
92230.576441,-113.386800
92481.203008,-113.533800
92731.829574,-113.439700
92982.456140,-113.257500
93233.082707,-112.534300
93483.709273,-112.810600
93734.335840,-112.775300
93984.962406,-111.229000
94235.588972,-110.370600
94486.215539,-112.863500
94736.842105,-112.969400
94987.468672,-112.975200
95238.095238,-112.928200
95488.721805,-112.969400
95739.348371,-112.663600
95989.974937,-113.081100
96240.601504,-112.663600
96491.228070,-113.092800
96741.854637,-113.116400
96992.481203,-113.145800
97243.107769,-113.128100
97493.734336,-113.028200
97744.360902,-112.998800
97994.987469,-113.075200
98245.614035,-112.898800
98496.240602,-113.022300
98746.867168,-112.969400
98997.493734,-113.004600
99248.120301,-113.010500
99498.746867,-112.969400
99749.373434,-112.940000
100000.000000,-112.152100
