# f [Hz], A [dBV]
# 
0.000000,-64.008980
250.626566,-67.607220
501.253133,-75.703290
751.879699,-79.254500
1002.506266,-81.406390
1253.132832,-82.564660
1503.759398,-83.652360
1754.385965,-84.234430
2005.012531,-84.634240
2255.639098,-85.086960
2506.265664,-85.210430
2756.892231,-85.139870
3007.518797,-85.416210
3258.145363,-85.451480
3508.771930,-85.451480
3759.398496,-85.445610
4010.025063,-85.574950
4260.651629,-85.404450
4511.278195,-85.363290
4761.904762,-85.404450
5012.531328,-85.398570
5263.157895,-85.351530
5513.784461,-85.357410
5764.411028,-85.128110
6015.037594,-84.987000
6265.664160,-85.063440
6516.290727,-85.051680
6766.917293,-84.981120
7017.543860,-84.863540
7268.170426,-84.928210
7518.796992,-84.693030
7769.423559,-84.728310
8020.050125,-84.763580
8270.676692,-84.516640
8521.303258,-84.534280
8771.929825,-84.557800
9022.556391,-84.604840
9273.182957,-84.340260
9523.809524,-84.234430
9774.436090,-84.216790
10025.062657,-84.263830
10275.689223,-83.952210
10526.315789,-83.952210
10776.942356,-83.887540
11027.568922,-83.911060
11278.195489,-83.693520
11528.822055,-83.858140
11779.448622,-83.681760
12030.075188,-83.664120
12280.701754,-83.681760
12531.328321,-83.652360
12781.954887,-83.417180
13032.581454,-83.399540
13283.208020,-83.570050
13533.834586,-83.205520
13784.461153,-83.287830
14035.087719,-83.158480
14285.714286,-83.123210
14536.340852,-83.140840
14786.967419,-82.982100
15037.593985,-82.923300
15288.220551,-82.846870
15538.847118,-82.882140
15789.473684,-82.882140
16040.100251,-82.764560
16290.726817,-82.664600
16541.353383,-82.511740
16791.979950,-82.746920
17042.606516,-82.517620
17293.233083,-82.482340
17543.859649,-82.394150
17794.486216,-82.447060
18045.112782,-82.253040
18295.739348,-82.188370
18546.365915,-82.123690
18796.992481,-82.241280
19047.619048,-82.188370
19298.245614,-82.217760
19548.872180,-82.070780
19799.498747,-82.064900
20050.125313,-81.847350
20300.751880,-82.006100
20551.378446,-81.982580
20802.005013,-81.900270
21052.631579,-81.706250
21303.258145,-81.612170
21553.884712,-81.512230
21804.511278,-81.606300
22055.137845,-81.647450
22305.764411,-81.506340
22556.390977,-81.488710
22807.017544,-81.300560
23057.644110,-81.318200
23308.270677,-81.271160
23558.897243,-81.365240
23809.523810,-81.329960
24060.150376,-81.194730
24310.776942,-81.118300
24561.403509,-81.182970
24812.030075,-80.900760
25062.656642,-80.859600
25313.283208,-80.953670
25563.909774,-80.800800
25814.536341,-80.983070
26065.162907,-80.930160
26315.789474,-80.730250
26566.416040,-80.618540
26817.042607,-80.724370
27067.669173,-80.483310
27318.295739,-80.618540
27568.922306,-80.553870
27819.548872,-80.436280
28070.175439,-80.706730
28320.802005,-80.389240
28571.428571,-80.453910
28822.055138,-80.359840
29072.681704,-80.401000
29323.308271,-80.218730
29573.934837,-80.271650
29824.561404,-80.289290
30075.187970,-80.142300
30325.814536,-80.159940
30576.441103,-79.971800
30827.067669,-80.030590
31077.694236,-79.983550
31328.320802,-80.036470
31578.947368,-79.854210
31829.573935,-79.977680
32080.200501,-79.871850
32330.827068,-79.924760
32581.453634,-79.724860
32832.080201,-77.884580
33082.706767,-79.824810
33333.333333,-79.677820
33583.959900,-79.613150
33834.586466,-79.513200
34085.213033,-79.624910
34335.839599,-79.677820
34586.466165,-79.425000
34837.092732,-79.466160
35087.719298,-79.377970
35338.345865,-79.195710
35588.972431,-79.454400
35839.598997,-79.289780
36090.225564,-79.183940
36340.852130,-79.084000
36591.478697,-79.348570
36842.105263,-79.248620
37092.731830,-79.084000
37343.358396,-79.166310
37593.984962,-79.095750
37844.611529,-78.972280
38095.238095,-79.072240
38345.864662,-79.166310
38596.491228,-78.913490
38847.117794,-78.690070
39097.744361,-78.972280
39348.370927,-78.813540
39598.997494,-78.831180
39849.624060,-78.690070
40100.250627,-78.566600
40350.877193,-78.578360
40601.503759,-78.560720
40852.130326,-78.707710
41102.756892,-78.290260
41353.383459,-78.631280
41604.010025,-78.325540
41854.636591,-78.231470
42105.263158,-78.190310
42355.889724,-78.213830
42606.516291,-77.990410
42857.142857,-78.149150
43107.769424,-77.890460
43358.395990,-78.066840
43609.022556,-77.949250
43859.649123,-77.790500
44110.275689,-77.737590
44360.902256,-77.802270
44611.528822,-77.890460
44862.155388,-77.872820
45112.781955,-77.672920
45363.408521,-77.725830
45614.035088,-77.602360
45864.661654,-77.578850
46115.288221,-77.696430
46365.914787,-77.584720
46616.541353,-77.567090
46867.167920,-77.567090
47117.794486,-77.408340
47368.421053,-77.384820
47619.047619,-77.337780
47869.674185,-77.425980
48120.300752,-77.525930
48370.927318,-77.290750
48621.553885,-77.414220
48872.180451,-77.449500
49122.807018,-77.026170
49373.433584,-77.531810
49624.060150,-77.378940
49874.686717,-77.214320
50125.313283,-77.173160
50375.939850,-77.361300
50626.566416,-77.296630
50877.192982,-77.461250
51127.819549,-77.108490
51378.446115,-77.184920
51629.072682,-77.179040
51879.699248,-77.326030
52130.325815,-77.226070
52380.952381,-77.167280
52631.578947,-77.002660
52882.205514,-77.114360
53132.832080,-77.084970
53383.458647,-77.143760
53634.085213,-77.302510
53884.711779,-77.190800
54135.338346,-77.167280
54385.964912,-77.137880
54636.591479,-77.108490
54887.218045,-77.120240
55137.844612,-77.284870
55388.471178,-77.337780
55639.097744,-77.226070
55889.724311,-77.108490
56140.350877,-77.249590
56390.977444,-77.231950
56641.604010,-77.149640
56892.230576,-77.173160
57142.857143,-77.249590
57393.483709,-77.161400
57644.110276,-77.202560
57894.736842,-77.179040
58145.363409,-77.043810
58395.989975,-77.008530
58646.616541,-77.143760
58897.243108,-77.037930
59147.869674,-76.955620
59398.496241,-76.937980
59649.122807,-77.037930
59899.749373,-76.943860
60150.375940,-76.879180
60401.002506,-76.967380
60651.629073,-76.979140
60902.255639,-77.055570
61152.882206,-76.838030
61403.508772,-77.008530
61654.135338,-76.832150
61904.761905,-76.802750
62155.388471,-76.755710
62406.015038,-76.702800
62656.641604,-76.779230
62907.268170,-76.638130
63157.894737,-76.526420
63408.521303,-76.467620
63659.147870,-76.261840
63909.774436,-75.991380
64160.401003,-76.291240
64411.027569,-76.179520
64661.654135,-76.326510
64912.280702,-75.421070
65162.907268,-76.220680
65413.533835,-76.297120
65664.160401,-76.302990
65914.786967,-76.138370
66165.413534,-76.073700
66416.040100,-76.138370
66666.666667,-76.244200
66917.293233,-76.238320
67167.919799,-76.279480
67418.546366,-76.173650
67669.172932,-76.056060
67919.799499,-76.009020
68170.426065,-76.150130
68421.052632,-76.197160
68671.679198,-76.203040
68922.305764,-76.273600
69172.932331,-76.179520
69423.558897,-76.179520
69674.185464,-75.973740
69924.812030,-75.979620
70175.438596,-75.991380
70426.065163,-75.703290
70676.691729,-75.909070
70927.318296,-75.903190
71177.944862,-76.009020
71428.571429,-76.014900
71679.197995,-75.950230
71929.824561,-76.103090
72180.451128,-76.020780
72431.077694,-75.991380
72681.704261,-75.967860
72932.330827,-76.026660
73182.957393,-75.991380
73433.583960,-75.903190
73684.210526,-75.938470
73934.837093,-75.920830
74185.463659,-75.815000
74436.090226,-75.803240
74686.716792,-75.926710
74937.343358,-75.803240
75187.969925,-75.867910
75438.596491,-75.938470
75689.223058,-75.879670
75939.849624,-75.926710
76190.476190,-76.020780
76441.102757,-76.279480
76691.729323,-75.961980
76942.355890,-75.967860
77192.982456,-75.803240
77443.609023,-75.756200
77694.235589,-75.973740
77944.862155,-75.803240
78195.488722,-75.544540
78446.115288,-75.691530
78696.741855,-75.468110
78947.368421,-75.756200
79197.994987,-76.014900
79448.621554,-76.044300
79699.248120,-76.126610
79949.874687,-75.944350
80200.501253,-75.961980
80451.127820,-75.961980
80701.754386,-75.897310
80952.380952,-75.785600
81203.007519,-76.156010
81453.634085,-76.079570
81704.260652,-75.944350
81954.887218,-75.826760
82205.513784,-76.103090
82456.140351,-75.967860
82706.766917,-76.003140
82957.393484,-75.879670
83208.020050,-75.873790
83458.646617,-75.956100
83709.273183,-75.844390
83959.899749,-75.903190
84210.526316,-75.903190
84461.152882,-75.838520
84711.779449,-75.762080
84962.406015,-75.720920
85213.032581,-75.644490
85463.659148,-75.797360
85714.285714,-75.679770
85964.912281,-75.691530
86215.538847,-75.815000
86466.165414,-75.556300
86716.791980,-75.673890
86967.418546,-75.715050
87218.045113,-75.673890
87468.671679,-75.579820
87719.298246,-75.785600
87969.924812,-75.803240
88220.551378,-75.744440
88471.177945,-75.632730
88721.804511,-75.556300
88972.431078,-75.632730
89223.057644,-75.662130
89473.684211,-75.579820
89724.310777,-75.409310
89974.937343,-75.350520
90225.563910,-75.332880
90476.190476,-75.632730
90726.817043,-75.532780
90977.443609,-75.638610
91228.070175,-75.456350
91478.696742,-75.456350
91729.323308,-75.526900
91979.949875,-75.615090
92230.576441,-75.609210
92481.203008,-75.556300
92731.829574,-75.609210
92982.456140,-75.638610
93233.082707,-75.491620
93483.709273,-75.468110
93734.335840,-75.426950
93984.962406,-75.250560
94235.588972,-74.974230
94486.215539,-75.338760
94736.842105,-75.473990
94987.468672,-75.456350
95238.095238,-75.227050
95488.721805,-75.268200
95739.348371,-75.697410
95989.974937,-75.538660
96240.601504,-75.609210
96491.228070,-75.797360
96741.854637,-75.726800
96992.481203,-75.556300
97243.107769,-75.626850
97493.734336,-75.409310
97744.360902,-75.620970
97994.987469,-75.485740
98245.614035,-75.515140
98496.240602,-75.321120
98746.867168,-75.403430
98997.493734,-75.385800
99248.120301,-75.473990
99498.746867,-75.562180
99749.373434,-75.532780
100000.000000,-75.479870
