# f [Hz], A [dBV]
# 
0.000000,-63.106450
250.626566,-72.143230
501.253133,-76.723360
751.879699,-77.822820
1002.506266,-78.404890
1253.132832,-78.645950
1503.759398,-78.651830
1754.385965,-78.716500
2005.012531,-78.822330
2255.639098,-78.857610
2506.265664,-78.845850
2756.892231,-78.845850
3007.518797,-78.863490
3258.145363,-78.857610
3508.771930,-78.816460
3759.398496,-78.822330
4010.025063,-78.839970
4260.651629,-78.834100
4511.278195,-78.969320
4761.904762,-78.881130
5012.531328,-78.822330
5263.157895,-78.781180
5513.784461,-78.622430
5764.411028,-78.640070
6015.037594,-78.792940
6265.664160,-78.698870
6516.290727,-78.716500
6766.917293,-78.587150
7017.543860,-78.781180
7268.170426,-78.810580
7518.796992,-78.716500
7769.423559,-78.634190
8020.050125,-78.622430
8270.676692,-78.628310
8521.303258,-78.640070
8771.929825,-78.598920
9022.556391,-78.634190
9273.182957,-78.610670
9523.809524,-78.440170
9774.436090,-78.440170
10025.062657,-78.428410
10275.689223,-78.481320
10526.315789,-78.546000
10776.942356,-78.457810
11027.568922,-78.575400
11278.195489,-78.399010
11528.822055,-78.434290
11779.448622,-78.281430
12030.075188,-78.222630
12280.701754,-78.263790
12531.328321,-78.281430
12781.954887,-78.281430
13032.581454,-78.304940
13283.208020,-78.287300
13533.834586,-78.152080
13784.461153,-78.257900
14035.087719,-78.146190
14285.714286,-78.210870
14536.340852,-78.028600
14786.967419,-78.210870
15037.593985,-78.351970
15288.220551,-78.240260
15538.847118,-78.122670
15789.473684,-78.110920
16040.100251,-78.016850
16290.726817,-78.216750
16541.353383,-78.157950
16791.979950,-77.963930
17042.606516,-77.963930
17293.233083,-77.916890
17543.859649,-77.911010
17794.486216,-77.946290
18045.112782,-77.905140
18295.739348,-78.022730
18546.365915,-77.722870
18796.992481,-77.787540
19047.619048,-77.834580
19298.245614,-77.658200
19548.872180,-77.799300
19799.498747,-77.905140
20050.125313,-77.599400
20300.751880,-77.687590
20551.378446,-77.858100
20802.005013,-77.711110
21052.631579,-77.699360
21303.258145,-77.517090
21553.884712,-77.669950
21804.511278,-77.687590
22055.137845,-77.687590
22305.764411,-77.558240
22556.390977,-77.658200
22807.017544,-77.705230
23057.644110,-77.570010
23308.270677,-77.505330
23558.897243,-77.575880
23809.523810,-77.593520
24060.150376,-77.487690
24310.776942,-77.387740
24561.403509,-77.405380
24812.030075,-77.499450
25062.656642,-77.528850
25313.283208,-77.393620
25563.909774,-77.475930
25814.536341,-77.405380
26065.162907,-77.364220
26315.789474,-77.381860
26566.416040,-77.340710
26817.042607,-77.264270
27067.669173,-77.346580
27318.295739,-77.117280
27568.922306,-77.270150
27819.548872,-77.328940
28070.175439,-77.252510
28320.802005,-77.146680
28571.428571,-76.999690
28822.055138,-77.093770
29072.681704,-77.246630
29323.308271,-77.193720
29573.934837,-77.199590
29824.561404,-77.134920
30075.187970,-77.134920
30325.814536,-77.005570
30576.441103,-76.982060
30827.067669,-77.111400
31077.694236,-77.111400
31328.320802,-77.140800
31578.947368,-76.993810
31829.573935,-76.999690
32080.200501,-76.946780
32330.827068,-76.940900
32581.453634,-76.876220
32832.080201,-76.376460
33082.706767,-76.899740
33333.333333,-76.652800
33583.959900,-76.893860
33834.586466,-76.864460
34085.213033,-76.799790
34335.839599,-76.723360
34586.466165,-76.917380
34837.092732,-76.617520
35087.719298,-76.682200
35338.345865,-76.617520
35588.972431,-76.735120
35839.598997,-76.664560
36090.225564,-76.546970
36340.852130,-76.370590
36591.478697,-76.711600
36842.105263,-76.670440
37092.731830,-76.405860
37343.358396,-76.476420
37593.984962,-76.499940
37844.611529,-76.464660
38095.238095,-76.564610
38345.864662,-76.482300
38596.491228,-76.588130
38847.117794,-76.388230
39097.744361,-76.494060
39348.370927,-76.317670
39598.997494,-76.370590
39849.624060,-76.505810
40100.250627,-76.253000
40350.877193,-76.147160
40601.503759,-76.241240
40852.130326,-76.335310
41102.756892,-76.223600
41353.383459,-76.470540
41604.010025,-76.247120
41854.636591,-76.141290
42105.263158,-76.317670
42355.889724,-76.164800
42606.516291,-76.123650
42857.142857,-76.035450
43107.769424,-76.182440
43358.395990,-75.935500
43609.022556,-76.076610
43859.649123,-75.941380
44110.275689,-76.158930
44360.902256,-75.964900
44611.528822,-76.058980
44862.155388,-76.064850
45112.781955,-75.941380
45363.408521,-76.070730
45614.035088,-75.788520
45864.661654,-75.976660
46115.288221,-75.906110
46365.914787,-75.806150
46616.541353,-76.035450
46867.167920,-75.935500
47117.794486,-75.864950
47368.421053,-75.817920
47619.047619,-75.700330
47869.674185,-75.788520
48120.300752,-75.923740
48370.927318,-75.747360
48621.553885,-75.612130
48872.180451,-75.788520
49122.807018,-75.870830
49373.433584,-75.911990
49624.060150,-75.776760
49874.686717,-75.676800
50125.313283,-75.712080
50375.939850,-75.712080
50626.566416,-75.706210
50877.192982,-75.600370
51127.819549,-75.606250
51378.446115,-75.729720
51629.072682,-75.618010
51879.699248,-75.553340
52130.325815,-75.618010
52380.952381,-75.700330
52631.578947,-75.723850
52882.205514,-75.629770
53132.832080,-75.712080
53383.458647,-75.706210
53634.085213,-75.482780
53884.711779,-75.535700
54135.338346,-75.812030
54385.964912,-75.435750
54636.591479,-75.565090
54887.218045,-75.582730
55137.844612,-75.706210
55388.471178,-75.582730
55639.097744,-75.629770
55889.724311,-75.553340
56140.350877,-75.582730
56390.977444,-75.541580
56641.604010,-75.518060
56892.230576,-75.423990
57142.857143,-75.559220
57393.483709,-75.541580
57644.110276,-75.553340
57894.736842,-75.618010
58145.363409,-75.676800
58395.989975,-75.406350
58646.616541,-75.476910
58897.243108,-75.541580
59147.869674,-75.576860
59398.496241,-75.600370
59649.122807,-75.659170
59899.749373,-75.488660
60150.375940,-75.623890
60401.002506,-75.582730
60651.629073,-75.447510
60902.255639,-75.418110
61152.882206,-75.494540
61403.508772,-75.447510
61654.135338,-75.482780
61904.761905,-75.447510
62155.388471,-75.429870
62406.015038,-75.465150
62656.641604,-75.341670
62907.268170,-75.371070
63157.894737,-75.518060
63408.521303,-75.394590
63659.147870,-75.371070
63909.774436,-75.335800
64160.401003,-75.329920
64411.027569,-75.265240
64661.654135,-75.247600
64912.280702,-75.006550
65162.907268,-75.147650
65413.533835,-75.194690
65664.160401,-75.235850
65914.786967,-75.200570
66165.413534,-75.347560
66416.040100,-75.241720
66666.666667,-75.247600
66917.293233,-75.171170
67167.919799,-75.182930
67418.546366,-75.006550
67669.172932,-75.171170
67919.799499,-75.271130
68170.426065,-75.288760
68421.052632,-75.177050
68671.679198,-75.300520
68922.305764,-75.200570
69172.932331,-75.182930
69423.558897,-75.135890
69674.185464,-75.118260
69924.812030,-75.100620
70175.438596,-75.100620
70426.065163,-75.112370
70676.691729,-75.100620
70927.318296,-75.277000
71177.944862,-74.924230
71428.571429,-75.177050
71679.197995,-75.024190
71929.824561,-75.229970
72180.451128,-74.941870
72431.077694,-75.071220
72681.704261,-74.994790
72932.330827,-75.206450
73182.957393,-75.259360
73433.583960,-75.100620
73684.210526,-74.965390
73934.837093,-75.082980
74185.463659,-75.130010
74436.090226,-75.082980
74686.716792,-74.994790
74937.343358,-74.947750
75187.969925,-75.059460
75438.596491,-75.077100
75689.223058,-75.088860
75939.849624,-75.130010
76190.476190,-75.141780
76441.102757,-75.171170
76691.729323,-75.130010
76942.355890,-74.983020
77192.982456,-74.841920
77443.609023,-75.035940
77694.235589,-75.012430
77944.862155,-75.012430
78195.488722,-74.924230
78446.115288,-74.836040
78696.741855,-75.041820
78947.368421,-74.924230
79197.994987,-75.088860
79448.621554,-75.006550
79699.248120,-75.106500
79949.874687,-75.065340
80200.501253,-75.130010
80451.127820,-75.071220
80701.754386,-75.094730
80952.380952,-75.112370
81203.007519,-75.012430
81453.634085,-74.965390
81704.260652,-75.094730
81954.887218,-74.935990
82205.513784,-75.135890
82456.140351,-75.059460
82706.766917,-75.030060
82957.393484,-75.082980
83208.020050,-74.935990
83458.646617,-75.000660
83709.273183,-75.153530
83959.899749,-75.141780
84210.526316,-74.988910
84461.152882,-75.153530
84711.779449,-75.059460
84962.406015,-74.900710
85213.032581,-74.912480
85463.659148,-75.047700
85714.285714,-75.024190
85964.912281,-75.000660
86215.538847,-75.071220
86466.165414,-74.994790
86716.791980,-75.035940
86967.418546,-74.959510
87218.045113,-75.035940
87468.671679,-74.988910
87719.298246,-75.094730
87969.924812,-75.065340
88220.551378,-74.994790
88471.177945,-75.071220
88721.804511,-75.059460
88972.431078,-74.847800
89223.057644,-74.959510
89473.684211,-74.865440
89724.310777,-74.812520
89974.937343,-75.053580
90225.563910,-74.965390
90476.190476,-74.971270
90726.817043,-74.877200
90977.443609,-74.912480
91228.070175,-74.953630
91478.696742,-74.924230
91729.323308,-74.900710
91979.949875,-75.118260
92230.576441,-74.724330
92481.203008,-74.912480
92731.829574,-74.912480
92982.456140,-74.988910
93233.082707,-75.012430
93483.709273,-74.977150
93734.335840,-74.883070
93984.962406,-74.865440
94235.588972,-74.830160
94486.215539,-75.024190
94736.842105,-74.859560
94987.468672,-75.118260
95238.095238,-74.806640
95488.721805,-74.983020
95739.348371,-75.082980
95989.974937,-75.035940
96240.601504,-74.271610
96491.228070,-74.994790
96741.854637,-75.147650
96992.481203,-75.130010
97243.107769,-75.012430
97493.734336,-74.894840
97744.360902,-74.924230
97994.987469,-75.000660
98245.614035,-75.053580
98496.240602,-75.041820
98746.867168,-75.006550
98997.493734,-74.977150
99248.120301,-74.847800
99498.746867,-74.988910
99749.373434,-75.041820
100000.000000,-75.094730
