# f [Hz], A [dBV]
# 
0.000000,-61.536630
250.626566,-69.550380
501.253133,-72.713550
751.879699,-72.966360
1002.506266,-73.789490
1253.132832,-74.101100
1503.759398,-74.177540
1754.385965,-74.624370
2005.012531,-74.583220
2255.639098,-74.565580
2506.265664,-74.612620
2756.892231,-74.800770
3007.518797,-74.565580
3258.145363,-74.689050
3508.771930,-74.665530
3759.398496,-74.800770
4010.025063,-74.677290
4260.651629,-74.606740
4511.278195,-74.553830
4761.904762,-74.583220
5012.531328,-74.677290
5263.157895,-74.677290
5513.784461,-74.542070
5764.411028,-74.665530
6015.037594,-74.630260
6265.664160,-74.565580
6516.290727,-74.547940
6766.917293,-74.636140
7017.543860,-74.542070
7268.170426,-74.706690
7518.796992,-74.600860
7769.423559,-74.612620
8020.050125,-74.500910
8270.676692,-74.647900
8521.303258,-74.489150
8771.929825,-74.436230
9022.556391,-74.553830
9273.182957,-74.647900
9523.809524,-74.600860
9774.436090,-74.524430
10025.062657,-74.677290
10275.689223,-74.442120
10526.315789,-74.430350
10776.942356,-74.571460
11027.568922,-74.642010
11278.195489,-74.477390
11528.822055,-74.512660
11779.448622,-74.471510
12030.075188,-74.365680
12280.701754,-74.542070
12531.328321,-74.430350
12781.954887,-74.559700
13032.581454,-74.659650
13283.208020,-74.289250
13533.834586,-74.506790
13784.461153,-74.371560
14035.087719,-74.565580
14285.714286,-74.571460
14536.340852,-74.559700
14786.967419,-74.400960
15037.593985,-74.530300
15288.220551,-74.606740
15538.847118,-74.406840
15789.473684,-74.447990
16040.100251,-74.418590
16290.726817,-74.371560
16541.353383,-74.395080
16791.979950,-74.183420
17042.606516,-74.318640
17293.233083,-74.447990
17543.859649,-74.189290
17794.486216,-74.248090
18045.112782,-74.365680
18295.739348,-74.353920
18546.365915,-74.318640
18796.992481,-74.336280
19047.619048,-74.148140
19298.245614,-74.442120
19548.872180,-74.189290
19799.498747,-74.312770
20050.125313,-74.230450
20300.751880,-74.295130
20551.378446,-74.183420
20802.005013,-74.348050
21052.631579,-74.418590
21303.258145,-74.289250
21553.884712,-74.400960
21804.511278,-74.265730
22055.137845,-74.177540
22305.764411,-74.206930
22556.390977,-74.118740
22807.017544,-74.359800
23057.644110,-74.395080
23308.270677,-74.124620
23558.897243,-74.165780
23809.523810,-74.148140
24060.150376,-74.177540
24310.776942,-74.154020
24561.403509,-74.201060
24812.030075,-74.183420
25062.656642,-74.230450
25313.283208,-74.030550
25563.909774,-74.124620
25814.536341,-74.118740
26065.162907,-74.342160
26315.789474,-74.112860
26566.416040,-74.054070
26817.042607,-74.177540
27067.669173,-74.195180
27318.295739,-74.042300
27568.922306,-74.218700
27819.548872,-74.059940
28070.175439,-74.277490
28320.802005,-73.942360
28571.428571,-73.924720
28822.055138,-74.189290
29072.681704,-74.054070
29323.308271,-73.948230
29573.934837,-74.136380
29824.561404,-73.942360
30075.187970,-73.971760
30325.814536,-74.048190
30576.441103,-74.101100
30827.067669,-74.024670
31077.694236,-73.971760
31328.320802,-73.918840
31578.947368,-73.936480
31829.573935,-73.936480
32080.200501,-73.871800
32330.827068,-73.801250
32581.453634,-73.960000
32832.080201,-73.242700
33082.706767,-74.007030
33333.333333,-73.836520
33583.959900,-74.018790
33834.586466,-74.007030
34085.213033,-73.883560
34335.839599,-73.824770
34586.466165,-73.877690
34837.092732,-73.789490
35087.719298,-73.871800
35338.345865,-73.854160
35588.972431,-73.760090
35839.598997,-73.836520
36090.225564,-73.777730
36340.852130,-73.824770
36591.478697,-73.830650
36842.105263,-73.854160
37092.731830,-73.783610
37343.358396,-73.701300
37593.984962,-73.695420
37844.611529,-73.783610
38095.238095,-73.695420
38345.864662,-73.865920
38596.491228,-73.671900
38847.117794,-73.630740
39097.744361,-73.883560
39348.370927,-73.654260
39598.997494,-73.695420
39849.624060,-73.519040
40100.250627,-73.707180
40350.877193,-73.695420
40601.503759,-73.771850
40852.130326,-73.718930
41102.756892,-73.677780
41353.383459,-73.742450
41604.010025,-73.472000
41854.636591,-73.295620
42105.263158,-73.554310
42355.889724,-73.601350
42606.516291,-73.689540
42857.142857,-73.442600
43107.769424,-73.589580
43358.395990,-73.695420
43609.022556,-73.648380
43859.649123,-73.566070
44110.275689,-73.654260
44360.902256,-73.524910
44611.528822,-73.630740
44862.155388,-73.624860
45112.781955,-73.630740
45363.408521,-73.554310
45614.035088,-73.354410
45864.661654,-73.560190
46115.288221,-73.566070
46365.914787,-73.419080
46616.541353,-73.472000
46867.167920,-73.495510
47117.794486,-73.477870
47368.421053,-73.442600
47619.047619,-73.583710
47869.674185,-73.566070
48120.300752,-73.601350
48370.927318,-73.236820
48621.553885,-73.330890
48872.180451,-73.513150
49122.807018,-73.248570
49373.433584,-73.424960
49624.060150,-73.536670
49874.686717,-73.460240
50125.313283,-73.530790
50375.939850,-73.360290
50626.566416,-73.424960
50877.192982,-73.395560
51127.819549,-73.401440
51378.446115,-73.424960
51629.072682,-73.424960
51879.699248,-73.618990
52130.325815,-73.430840
52380.952381,-73.436720
52631.578947,-73.583710
52882.205514,-73.436720
53132.832080,-73.595470
53383.458647,-73.366170
53634.085213,-73.383800
53884.711779,-73.430840
54135.338346,-73.389690
54385.964912,-73.507270
54636.591479,-73.419080
54887.218045,-73.554310
55137.844612,-73.524910
55388.471178,-73.548430
55639.097744,-73.483760
55889.724311,-73.395560
56140.350877,-73.613110
56390.977444,-73.430840
56641.604010,-73.513150
56892.230576,-73.472000
57142.857143,-73.348530
57393.483709,-73.442600
57644.110276,-73.401440
57894.736842,-73.407330
58145.363409,-73.472000
58395.989975,-73.442600
58646.616541,-73.377920
58897.243108,-73.519040
59147.869674,-73.477870
59398.496241,-73.507270
59649.122807,-73.401440
59899.749373,-73.389690
60150.375940,-73.554310
60401.002506,-73.477870
60651.629073,-73.430840
60902.255639,-73.524910
61152.882206,-73.413200
61403.508772,-73.395560
61654.135338,-73.383800
61904.761905,-73.442600
62155.388471,-73.448480
62406.015038,-73.613110
62656.641604,-73.389690
62907.268170,-73.442600
63157.894737,-73.313250
63408.521303,-73.454360
63659.147870,-73.348530
63909.774436,-73.213300
64160.401003,-73.336770
64411.027569,-73.407330
64661.654135,-73.366170
64912.280702,-72.989880
65162.907268,-73.266210
65413.533835,-73.154500
65664.160401,-73.342650
65914.786967,-73.460240
66165.413534,-73.272090
66416.040100,-73.454360
66666.666667,-73.336770
66917.293233,-73.383800
67167.919799,-73.213300
67418.546366,-73.254460
67669.172932,-73.072190
67919.799499,-73.266210
68170.426065,-73.295620
68421.052632,-73.366170
68671.679198,-73.272090
68922.305764,-73.407330
69172.932331,-73.266210
69423.558897,-73.377920
69674.185464,-73.307370
69924.812030,-73.283850
70175.438596,-73.554310
70426.065163,-73.419080
70676.691729,-73.260340
70927.318296,-73.401440
71177.944862,-73.401440
71428.571429,-73.513150
71679.197995,-73.430840
71929.824561,-73.336770
72180.451128,-73.477870
72431.077694,-73.407330
72681.704261,-73.636620
72932.330827,-73.372050
73182.957393,-73.242700
73433.583960,-73.319130
73684.210526,-73.413200
73934.837093,-73.372050
74185.463659,-73.201540
74436.090226,-73.277980
74686.716792,-73.448480
74937.343358,-73.313250
75187.969925,-73.307370
75438.596491,-73.401440
75689.223058,-73.348530
75939.849624,-73.389690
76190.476190,-73.183900
76441.102757,-73.260340
76691.729323,-73.642500
76942.355890,-73.407330
77192.982456,-73.319130
77443.609023,-73.342650
77694.235589,-73.613110
77944.862155,-73.336770
78195.488722,-73.501400
78446.115288,-73.372050
78696.741855,-73.407330
78947.368421,-73.460240
79197.994987,-73.595470
79448.621554,-73.489640
79699.248120,-73.536670
79949.874687,-73.530790
80200.501253,-73.377920
80451.127820,-73.530790
80701.754386,-73.554310
80952.380952,-73.542550
81203.007519,-73.618990
81453.634085,-73.319130
81704.260652,-73.377920
81954.887218,-73.430840
82205.513784,-73.348530
82456.140351,-73.501400
82706.766917,-73.519040
82957.393484,-73.636620
83208.020050,-73.413200
83458.646617,-73.430840
83709.273183,-73.489640
83959.899749,-73.548430
84210.526316,-73.607220
84461.152882,-73.513150
84711.779449,-73.618990
84962.406015,-73.372050
85213.032581,-73.489640
85463.659148,-73.554310
85714.285714,-73.530790
85964.912281,-73.372050
86215.538847,-73.571950
86466.165414,-73.336770
86716.791980,-73.395560
86967.418546,-73.413200
87218.045113,-73.583710
87468.671679,-73.436720
87719.298246,-73.413200
87969.924812,-73.501400
88220.551378,-73.666020
88471.177945,-73.542550
88721.804511,-73.548430
88972.431078,-73.542550
89223.057644,-73.530790
89473.684211,-73.454360
89724.310777,-73.666020
89974.937343,-73.630740
90225.563910,-73.683660
90476.190476,-73.654260
90726.817043,-73.436720
90977.443609,-73.777730
91228.070175,-73.483760
91478.696742,-73.713060
91729.323308,-73.583710
91979.949875,-73.513150
92230.576441,-73.595470
92481.203008,-73.536670
92731.829574,-73.507270
92982.456140,-73.618990
93233.082707,-73.536670
93483.709273,-73.566070
93734.335840,-73.507270
93984.962406,-73.436720
94235.588972,-73.436720
94486.215539,-73.660140
94736.842105,-73.601350
94987.468672,-73.677780
95238.095238,-73.554310
95488.721805,-73.530790
95739.348371,-73.571950
95989.974937,-73.748340
96240.601504,-73.031040
96491.228070,-73.754210
96741.854637,-73.695420
96992.481203,-73.624860
97243.107769,-73.689540
97493.734336,-73.595470
97744.360902,-73.748340
97994.987469,-73.601350
98245.614035,-73.618990
98496.240602,-73.695420
98746.867168,-73.660140
98997.493734,-73.695420
99248.120301,-73.818890
99498.746867,-73.648380
99749.373434,-73.730700
100000.000000,-73.671900
