# f [Hz], A [dBV]
# 
0.000000,-58.315680
250.626566,-58.621410
501.253133,-62.102070
751.879699,-72.138370
1002.506266,-81.951240
1253.132832,-82.033550
1503.759398,-81.951240
1754.385965,-81.974760
2005.012531,-81.992400
2255.639098,-81.904210
2506.265664,-81.669030
2756.892231,-81.445610
3007.518797,-81.386810
3258.145363,-81.345650
3508.771930,-81.163390
3759.398496,-81.004640
4010.025063,-80.951730
4260.651629,-80.939970
4511.278195,-80.840020
4761.904762,-80.722430
5012.531328,-80.634240
5263.157895,-80.481370
5513.784461,-80.334380
5764.411028,-80.246190
6015.037594,-80.222670
6265.664160,-80.246190
6516.290727,-80.199150
6766.917293,-79.981610
7017.543860,-79.793470
7268.170426,-79.664120
7518.796992,-79.523010
7769.423559,-79.470100
8020.050125,-79.475980
8270.676692,-79.446580
8521.303258,-79.393660
8771.929825,-79.346630
9022.556391,-79.270190
9273.182957,-79.035010
9523.809524,-78.952700
9774.436090,-79.005620
10025.062657,-79.035010
10275.689223,-78.888030
10526.315789,-78.699880
10776.942356,-78.594050
11027.568922,-78.517620
11278.195489,-78.435310
11528.822055,-78.370630
11779.448622,-78.341230
12030.075188,-78.335350
12280.701754,-78.211880
12531.328321,-78.070780
12781.954887,-77.935550
13032.581454,-77.817960
13283.208020,-77.835600
13533.834586,-77.929670
13784.461153,-77.900270
14035.087719,-77.735650
14285.714286,-77.606300
14536.340852,-77.571020
14786.967419,-77.500470
15037.593985,-77.476950
15288.220551,-77.412270
15538.847118,-77.271160
15789.473684,-77.177090
16040.100251,-77.124180
16290.726817,-77.100660
16541.353383,-77.094780
16791.979950,-77.035980
17042.606516,-76.971310
17293.233083,-76.953670
17543.859649,-76.947790
17794.486216,-76.947790
18045.112782,-77.024230
18295.739348,-77.006590
18546.365915,-76.836080
18796.992481,-76.606780
19047.619048,-76.442160
19298.245614,-76.412760
19548.872180,-76.389240
19799.498747,-76.395120
20050.125313,-76.371600
20300.751880,-76.324570
20551.378446,-76.259890
20802.005013,-76.107030
21052.631579,-75.954160
21303.258145,-75.877730
21553.884712,-75.854210
21804.511278,-75.842450
22055.137845,-75.889480
22305.764411,-75.965920
22556.390977,-75.948280
22807.017544,-75.889480
23057.644110,-75.842450
23308.270677,-75.807170
23558.897243,-75.760140
23809.523810,-75.654300
24060.150376,-75.595510
24310.776942,-75.619030
24561.403509,-75.648430
24812.030075,-75.607270
25062.656642,-75.536720
25313.283208,-75.524960
25563.909774,-75.460280
25814.536341,-75.430890
26065.162907,-75.342690
26315.789474,-75.254500
26566.416040,-75.178070
26817.042607,-75.042840
27067.669173,-74.984040
27318.295739,-74.960530
27568.922306,-74.937010
27819.548872,-74.919370
28070.175439,-74.872330
28320.802005,-74.807660
28571.428571,-74.807660
28822.055138,-74.913490
29072.681704,-74.866450
29323.308271,-74.737100
29573.934837,-74.660670
29824.561404,-74.543080
30075.187970,-74.431370
30325.814536,-74.543080
30576.441103,-74.648910
30827.067669,-74.590120
31077.694236,-74.466650
31328.320802,-74.296140
31578.947368,-74.231470
31829.573935,-74.249110
32080.200501,-74.225590
32330.827068,-74.172670
32581.453634,-74.160920
32832.080201,-74.219710
33082.706767,-74.184430
33333.333333,-74.131520
33583.959900,-74.002170
33834.586466,-73.849300
34085.213033,-73.737590
34335.839599,-73.702310
34586.466165,-73.708190
34837.092732,-73.761110
35087.719298,-73.866940
35338.345865,-73.855180
35588.972431,-73.766990
35839.598997,-73.702310
36090.225564,-73.708190
36340.852130,-73.696430
36591.478697,-73.655280
36842.105263,-73.672920
37092.731830,-73.702310
37343.358396,-73.631760
37593.984962,-73.514170
37844.611529,-73.408340
38095.238095,-73.349540
38345.864662,-73.320150
38596.491228,-73.296630
38847.117794,-73.302510
39097.744361,-73.331910
39348.370927,-73.390700
39598.997494,-73.473010
39849.624060,-73.390700
40100.250627,-73.231950
40350.877193,-73.102600
40601.503759,-72.943860
40852.130326,-72.849790
41102.756892,-72.685160
41353.383459,-72.644000
41604.010025,-72.702800
41854.636591,-72.820390
42105.263158,-72.961500
42355.889724,-72.908580
42606.516291,-72.790990
42857.142857,-72.855670
43107.769424,-72.955620
43358.395990,-73.032050
43609.022556,-72.896820
43859.649123,-72.644000
44110.275689,-72.514660
44360.902256,-72.444100
44611.528822,-72.302990
44862.155388,-72.173650
45112.781955,-72.103090
45363.408521,-72.197160
45614.035088,-72.444100
45864.661654,-72.514660
46115.288221,-72.491140
46365.914787,-72.432340
46616.541353,-72.273600
46867.167920,-72.173650
47117.794486,-72.197160
47368.421053,-72.220680
47619.047619,-72.208920
47869.674185,-72.226560
48120.300752,-72.267720
48370.927318,-72.279480
48621.553885,-72.261840
48872.180451,-72.173650
49122.807018,-72.020780
49373.433584,-71.920830
49624.060150,-71.891430
49874.686717,-72.032540
50125.313283,-72.220680
50375.939850,-72.108970
50626.566416,-71.856150
50877.192982,-71.662130
51127.819549,-71.620970
51378.446115,-71.679770
51629.072682,-71.773840
51879.699248,-71.809120
52130.325815,-71.826760
52380.952381,-71.773840
52631.578947,-71.738560
52882.205514,-71.791480
53132.832080,-71.950230
53383.458647,-72.020780
53634.085213,-71.956100
53884.711779,-71.914950
54135.338346,-71.873790
54385.964912,-71.820880
54636.591479,-71.750320
54887.218045,-71.726800
55137.844612,-71.767960
55388.471178,-71.738560
55639.097744,-71.638610
55889.724311,-71.579820
56140.350877,-71.573940
56390.977444,-71.491620
56641.604010,-71.421070
56892.230576,-71.415190
57142.857143,-71.438710
57393.483709,-71.515140
57644.110276,-71.521020
57894.736842,-71.403430
58145.363409,-71.250560
58395.989975,-71.180010
58646.616541,-71.185890
58897.243108,-71.244690
59147.869674,-71.356400
59398.496241,-71.368160
59649.122807,-71.321120
59899.749373,-71.279960
60150.375940,-71.338760
60401.002506,-71.421070
60651.629073,-71.374030
60902.255639,-71.321120
61152.882206,-71.274080
61403.508772,-71.209410
61654.135338,-71.227050
61904.761905,-71.274080
62155.388471,-71.203530
62406.015038,-71.127100
62656.641604,-71.109460
62907.268170,-71.009510
63157.894737,-70.909550
63408.521303,-70.921310
63659.147870,-71.009510
63909.774436,-71.091820
64160.401003,-71.109460
64411.027569,-71.097700
64661.654135,-71.097700
64912.280702,-71.021270
65162.907268,-70.980110
65413.533835,-71.038900
65664.160401,-71.027150
65914.786967,-70.862520
66165.413534,-70.668500
66416.040100,-70.633220
66666.666667,-70.774330
66917.293233,-70.909550
67167.919799,-70.944830
67418.546366,-70.944830
67669.172932,-70.833120
67919.799499,-70.709650
68170.426065,-70.662620
68421.052632,-70.780200
68671.679198,-70.874280
68922.305764,-70.880160
69172.932331,-70.803720
69423.558897,-70.780200
69674.185464,-70.856640
69924.812030,-70.915440
70175.438596,-70.956590
70426.065163,-70.927190
70676.691729,-70.827240
70927.318296,-70.762570
71177.944862,-70.656740
71428.571429,-70.586180
71679.197995,-70.639100
71929.824561,-70.586180
72180.451128,-70.539150
72431.077694,-70.586180
72681.704261,-70.574420
72932.330827,-70.550910
73182.957393,-70.521510
73433.583960,-70.445080
73684.210526,-70.386280
73934.837093,-70.398040
74185.463659,-70.380400
74436.090226,-70.433320
74686.716792,-70.403920
74937.343358,-70.368640
75187.969925,-70.403920
75438.596491,-70.374520
75689.223058,-70.427440
75939.849624,-70.509750
76190.476190,-70.492110
76441.102757,-70.474470
76691.729323,-70.409800
76942.355890,-70.351000
77192.982456,-70.298090
77443.609023,-70.256930
77694.235589,-70.303970
77944.862155,-70.415680
78195.488722,-70.439200
78446.115288,-70.368640
78696.741855,-70.309840
78947.368421,-70.292210
79197.994987,-70.309840
79448.621554,-70.251050
79699.248120,-70.151100
79949.874687,-70.151100
80200.501253,-70.180500
80451.127820,-70.174620
80701.754386,-70.162860
80952.380952,-70.268690
81203.007519,-70.351000
81453.634085,-70.309840
81704.260652,-70.256930
81954.887218,-70.204020
82205.513784,-70.303970
82456.140351,-70.480350
82706.766917,-70.497990
82957.393484,-70.421560
83208.020050,-70.327480
83458.646617,-70.286330
83709.273183,-70.327480
83959.899749,-70.362760
84210.526316,-70.362760
84461.152882,-70.421560
84711.779449,-70.480350
84962.406015,-70.480350
85213.032581,-70.450950
85463.659148,-70.356880
85714.285714,-70.262810
85964.912281,-70.139340
86215.538847,-70.015870
86466.165414,-69.904160
86716.791980,-69.904160
86967.418546,-70.092300
87218.045113,-70.268690
87468.671679,-70.368640
87719.298246,-70.339240
87969.924812,-70.262810
88220.551378,-70.209900
88471.177945,-70.127580
88721.804511,-69.980590
88972.431078,-69.892400
89223.057644,-69.886520
89473.684211,-69.986470
89724.310777,-70.127580
89974.937343,-70.151100
90225.563910,-70.127580
90476.190476,-70.009990
90726.817043,-69.957080
90977.443609,-70.027630
91228.070175,-70.086430
91478.696742,-70.156980
91729.323308,-70.262810
91979.949875,-70.233410
92230.576441,-70.162860
92481.203008,-70.051150
92731.829574,-69.939440
92982.456140,-69.980590
93233.082707,-70.051150
93483.709273,-70.068790
93734.335840,-70.045270
93984.962406,-69.974720
94235.588972,-69.857120
94486.215539,-69.833610
94736.842105,-69.886520
94987.468672,-69.939440
95238.095238,-69.927680
95488.721805,-69.874760
95739.348371,-69.798330
95989.974937,-69.845370
96240.601504,-69.980590
96491.228070,-70.027630
96741.854637,-70.051150
96992.481203,-70.086430
97243.107769,-70.039390
97493.734336,-69.974720
97744.360902,-70.004110
97994.987469,-70.109940
98245.614035,-70.204020
98496.240602,-70.180500
98746.867168,-69.986470
98997.493734,-69.810090
99248.120301,-69.721900
99498.746867,-69.663100
99749.373434,-69.668980
100000.000000,-69.727780
